# wavelength (A)  flux density (erg/cm2/s/A)
       2500.4622  1.11430e-13
       2501.8357  9.87660e-14
       2503.2092  1.03290e-13
       2504.5828  1.05700e-13
       2505.9563  8.75390e-14
       2507.3298  8.55720e-14
       2508.7034  9.68900e-14
       2510.0769  9.51430e-14
       2511.4504  8.78300e-14
       2512.8240  8.20460e-14
       2514.1975  7.10320e-14
       2515.5710  6.29380e-14
       2516.9446  6.10220e-14
       2518.3181  6.34440e-14
       2519.6914  6.78040e-14
       2521.0649  7.40210e-14
       2522.4385  6.43490e-14
       2523.8120  5.94240e-14
       2525.1855  6.54420e-14
       2526.5588  6.68570e-14
       2527.9324  6.24500e-14
       2529.3059  6.55780e-14
       2530.6792  8.25050e-14
       2532.0527  9.03140e-14
       2533.4263  9.04260e-14
       2534.7996  8.94360e-14
       2536.1731  8.84300e-14
       2537.5464  8.91580e-14
       2538.9199  9.19400e-14
       2540.2935  9.38630e-14
       2541.6667  9.54700e-14
       2543.0403  1.00870e-13
       2544.4136  1.03770e-13
       2545.7869  9.90330e-14
       2547.1604  9.75600e-14
       2548.5337  9.48010e-14
       2549.9072  1.02400e-13
       2551.2805  1.34410e-13
       2552.6538  1.48100e-13
       2554.0273  1.55610e-13
       2555.4006  1.53420e-13
       2556.7739  1.52610e-13
       2558.1472  1.62000e-13
       2559.5208  1.69590e-13
       2560.8940  1.63760e-13
       2562.2673  1.40020e-13
       2563.6406  1.42780e-13
       2565.0139  1.72660e-13
       2566.3872  2.03410e-13
       2567.7605  2.09700e-13
       2569.1338  2.27610e-13
       2570.5071  2.41130e-13
       2571.8804  2.41410e-13
       2573.2537  2.50660e-13
       2574.6270  2.11580e-13
       2576.0002  1.66630e-13
       2577.3735  1.88140e-13
       2578.7468  2.36790e-13
       2580.1201  2.77290e-13
       2581.4932  2.72450e-13
       2582.8665  2.40580e-13
       2584.2397  2.02090e-13
       2585.6130  1.58290e-13
       2586.9861  1.78350e-13
       2588.3594  2.29160e-13
       2589.7327  2.72360e-13
       2591.1057  2.38970e-13
       2592.4790  2.04520e-13
       2593.8521  1.82500e-13
       2595.2253  1.85990e-13
       2596.5986  1.69970e-13
       2597.9717  1.25890e-13
       2599.3447  1.08190e-13
       2600.7180  1.39710e-13
       2602.0911  1.79970e-13
       2603.4644  1.84840e-13
       2604.8374  1.62550e-13
       2606.2104  1.31980e-13
       2607.5837  1.28700e-13
       2608.9568  1.45840e-13
       2610.3298  1.46550e-13
       2611.7029  1.20850e-13
       2613.0759  1.18950e-13
       2614.4492  1.44560e-13
       2615.8223  1.77480e-13
       2617.1953  1.71420e-13
       2618.5684  1.72550e-13
       2619.9414  2.00710e-13
       2621.3145  2.02370e-13
       2622.6875  2.11930e-13
       2624.0605  2.04740e-13
       2625.4336  1.89190e-13
       2626.8064  1.68930e-13
       2628.1794  1.56150e-13
       2629.5525  1.47060e-13
       2630.9255  1.38290e-13
       2632.2986  1.63130e-13
       2633.6714  2.32230e-13
       2635.0444  2.97190e-13
       2636.4175  3.54890e-13
       2637.7903  4.31830e-13
       2639.1633  4.64890e-13
       2640.5361  4.57350e-13
       2641.9092  4.89990e-13
       2643.2820  5.35970e-13
       2644.6550  4.93090e-13
       2646.0278  4.49870e-13
       2647.4009  4.12130e-13
       2648.7737  3.81330e-13
       2650.1465  3.86340e-13
       2651.5195  4.07110e-13
       2652.8923  4.35190e-13
       2654.2651  4.84750e-13
       2655.6379  5.07220e-13
       2657.0110  5.11850e-13
       2658.3838  4.95250e-13
       2659.7566  4.87910e-13
       2661.1294  4.56920e-13
       2662.5022  4.29000e-13
       2663.8750  4.18130e-13
       2665.2478  4.30640e-13
       2666.6206  4.23930e-13
       2667.9934  4.25530e-13
       2669.3662  4.29050e-13
       2670.7388  4.37580e-13
       2672.1116  4.17540e-13
       2673.4844  4.39520e-13
       2674.8572  4.93160e-13
       2676.2297  4.86790e-13
       2677.6025  4.38770e-13
       2678.9753  4.11320e-13
       2680.3479  4.19870e-13
       2681.7207  4.39560e-13
       2683.0933  4.53970e-13
       2684.4661  4.47530e-13
       2685.8386  4.61340e-13
       2687.2114  4.54990e-13
       2688.5840  4.26890e-13
       2689.9565  3.99870e-13
       2691.3293  4.14330e-13
       2692.7019  4.41820e-13
       2694.0745  4.30130e-13
       2695.4470  3.92190e-13
       2696.8196  3.86260e-13
       2698.1924  4.13080e-13
       2699.5649  4.66470e-13
       2700.9375  4.98020e-13
       2702.3101  4.92370e-13
       2703.6826  5.09160e-13
       2705.0549  5.16020e-13
       2706.4275  4.69950e-13
       2707.8000  4.44300e-13
       2709.1726  4.41960e-13
       2710.5452  4.39730e-13
       2711.9177  4.44110e-13
       2713.2900  4.25910e-13
       2714.6626  4.00740e-13
       2716.0349  3.72850e-13
       2717.4075  3.53750e-13
       2718.7800  2.77820e-13
       2720.1523  2.32320e-13
       2721.5249  2.58380e-13
       2722.8972  2.93660e-13
       2724.2695  3.09130e-13
       2725.6421  3.27480e-13
       2727.0144  3.50240e-13
       2728.3867  3.90470e-13
       2729.7590  4.48530e-13
       2731.1316  4.34820e-13
       2732.5039  3.89820e-13
       2733.8762  3.43240e-13
       2735.2485  3.12420e-13
       2736.6208  2.81260e-13
       2737.9932  2.47220e-13
       2739.3655  2.39690e-13
       2740.7378  2.25840e-13
       2742.1101  2.14350e-13
       2743.4822  1.96840e-13
       2744.8545  2.11500e-13
       2746.2268  2.25820e-13
       2747.5989  2.09200e-13
       2748.9712  2.03640e-13
       2750.3435  2.11830e-13
       2751.7156  2.79890e-13
       2753.0879  3.26930e-13
       2754.4600  2.88660e-13
       2755.8323  2.53760e-13
       2757.2043  2.84760e-13
       2758.5764  3.91260e-13
       2759.9487  4.36270e-13
       2761.3208  4.04390e-13
       2762.6929  3.76120e-13
       2764.0649  4.13220e-13
       2765.4370  4.51050e-13
       2766.8093  4.28620e-13
       2768.1814  4.01500e-13
       2769.5535  4.08800e-13
       2770.9255  4.29120e-13
       2772.2974  4.34730e-13
       2773.6694  4.39500e-13
       2775.0415  4.33750e-13
       2776.4136  3.89610e-13
       2777.7856  3.42630e-13
       2779.1575  2.96930e-13
       2780.5295  2.74840e-13
       2781.9014  2.74880e-13
       2783.2734  2.70400e-13
       2784.6455  2.73660e-13
       2786.0173  2.70510e-13
       2787.3892  2.46400e-13
       2788.7612  2.10720e-13
       2790.1331  1.82550e-13
       2791.5049  1.57030e-13
       2792.8770  1.36270e-13
       2794.2488  1.27160e-13
       2795.6206  1.41480e-13
       2796.9924  1.28400e-13
       2798.3643  1.10450e-13
       2799.7361  1.19970e-13
       2801.1079  1.21850e-13
       2802.4797  1.30500e-13
       2803.8516  1.36550e-13
       2805.2231  1.39320e-13
       2806.5950  1.66970e-13
       2807.9668  1.99590e-13
       2809.3386  2.32170e-13
       2810.7102  2.57520e-13
       2812.0820  2.73060e-13
       2813.4536  3.03990e-13
       2814.8254  3.63770e-13
       2816.1970  3.86170e-13
       2817.5688  3.96010e-13
       2818.9404  4.24710e-13
       2820.3120  4.53830e-13
       2821.6836  4.63490e-13
       2823.0554  4.85160e-13
       2824.4270  5.15810e-13
       2825.7986  4.94060e-13
       2827.1702  4.99420e-13
       2828.5417  5.17540e-13
       2829.9133  5.49410e-13
       2831.2849  5.48230e-13
       2832.6562  5.37190e-13
       2834.0278  5.31550e-13
       2835.3994  4.81500e-13
       2836.7710  4.84890e-13
       2838.1423  5.42070e-13
       2839.5139  5.28090e-13
       2840.8853  4.88070e-13
       2842.2568  4.84630e-13
       2843.6282  4.22960e-13
       2844.9998  4.18840e-13
       2846.3711  3.67470e-13
       2847.7424  3.02960e-13
       2849.1138  2.32080e-13
       2850.4854  1.74390e-13
       2851.8567  1.29750e-13
       2853.2280  1.35310e-13
       2854.5994  1.82370e-13
       2855.9707  2.42120e-13
       2857.3420  3.05240e-13
       2858.7131  3.76780e-13
       2860.0845  4.64840e-13
       2861.4558  5.00730e-13
       2862.8271  5.16550e-13
       2864.1982  5.60360e-13
       2865.5696  5.70890e-13
       2866.9407  5.53720e-13
       2868.3120  5.20240e-13
       2869.6831  5.46180e-13
       2871.0544  6.35690e-13
       2872.4255  6.70070e-13
       2873.7966  6.15510e-13
       2875.1680  5.91750e-13
       2876.5391  5.56890e-13
       2877.9102  5.18170e-13
       2879.2812  4.50010e-13
       2880.6523  3.42500e-13
       2882.0234  2.93330e-13
       2883.3945  3.98750e-13
       2884.7654  5.56540e-13
       2886.1365  6.43910e-13
       2887.5076  6.51700e-13
       2888.8787  6.56380e-13
       2890.2495  6.58970e-13
       2891.6206  6.64840e-13
       2892.9915  6.71150e-13
       2894.3625  7.07140e-13
       2895.7334  7.98500e-13
       2897.1042  8.45260e-13
       2898.4753  8.64550e-13
       2899.8462  9.55180e-13
       2901.2170  9.75590e-13
       2902.5879  9.63220e-13
       2903.9587  1.02980e-12
       2905.3296  1.01050e-12
       2906.7004  9.69410e-13
       2908.0713  9.26920e-13
       2909.4421  9.06540e-13
       2910.8130  9.16280e-13
       2912.1836  9.62820e-13
       2913.5544  9.96190e-13
       2914.9253  9.22560e-13
       2916.2959  8.98490e-13
       2917.6667  8.84880e-13
       2919.0374  8.79920e-13
       2920.4080  9.07830e-13
       2921.7788  9.08800e-13
       2923.1494  8.38210e-13
       2924.5200  7.82930e-13
       2925.8906  7.53820e-13
       2927.2612  7.49470e-13
       2928.6318  7.29720e-13
       2930.0024  8.54700e-13
       2931.3730  9.81360e-13
       2932.7437  9.87160e-13
       2934.1143  9.65590e-13
       2935.4846  8.86620e-13
       2936.8552  7.21930e-13
       2938.2258  7.04640e-13
       2939.5962  7.70360e-13
       2940.9668  7.94610e-13
       2942.3372  8.42920e-13
       2943.7075  8.72730e-13
       2945.0781  8.62870e-13
       2946.4485  8.19110e-13
       2947.8188  6.80410e-13
       2949.1892  6.71870e-13
       2950.5596  8.11010e-13
       2951.9299  9.33740e-13
       2953.3003  8.69990e-13
       2954.6707  8.38770e-13
       2956.0410  8.92570e-13
       2957.4114  8.76410e-13
       2958.7815  9.46790e-13
       2960.1519  9.29270e-13
       2961.5220  9.42310e-13
       2962.8923  9.48390e-13
       2964.2625  8.55680e-13
       2965.6328  6.44260e-13
       2967.0029  5.84860e-13
       2968.3730  6.51990e-13
       2969.7432  6.34980e-13
       2971.1135  6.68550e-13
       2972.4836  6.95690e-13
       2973.8538  7.52250e-13
       2975.2239  9.15670e-13
       2976.5938  1.00950e-12
       2977.9639  1.06160e-12
       2979.3340  9.53920e-13
       2980.7041  7.95100e-13
       2982.0740  6.62450e-13
       2983.4441  5.75220e-13
       2984.8140  5.35790e-13
       2986.1841  6.03010e-13
       2987.5540  7.00430e-13
       2988.9238  8.38340e-13
       2990.2937  9.64280e-13
       2991.6638  9.42880e-13
       2993.0337  8.30400e-13
       2994.4036  7.19430e-13
       2995.7734  7.78700e-13
       2997.1433  8.89980e-13
       2998.5129  8.08720e-13
       2999.8828  6.11320e-13
       3001.2527  5.22290e-13
       3002.6223  5.44560e-13
       3003.9922  6.59630e-13
       3005.3621  7.90970e-13
       3006.7317  7.31980e-13
       3008.1013  6.44220e-13
       3009.4712  7.21190e-13
       3010.8408  8.34060e-13
       3012.2104  8.40240e-13
       3013.5801  8.64100e-13
       3014.9497  8.52820e-13
       3016.3193  8.06110e-13
       3017.6890  6.86600e-13
       3019.0586  5.60080e-13
       3020.4282  4.76190e-13
       3021.7976  5.72520e-13
       3023.1672  7.79000e-13
       3024.5366  7.96490e-13
       3025.9062  8.01380e-13
       3027.2756  9.66980e-13
       3028.6453  1.06980e-12
       3030.0146  1.01320e-12
       3031.3840  1.01580e-12
       3032.7534  1.11070e-12
       3034.1228  1.14080e-12
       3035.4922  1.10270e-12
       3036.8616  9.49110e-13
       3038.2310  8.39290e-13
       3039.6003  8.95920e-13
       3040.9697  8.97640e-13
       3042.3389  8.89020e-13
       3043.7083  1.01190e-12
       3045.0776  1.07230e-12
       3046.4468  9.95780e-13
       3047.8159  9.63390e-13
       3049.1853  9.56100e-13
       3050.5544  1.07260e-12
       3051.9236  1.15530e-12
       3053.2927  1.12250e-12
       3054.6619  9.92350e-13
       3056.0310  9.25440e-13
       3057.4001  7.58600e-13
       3058.7693  6.81770e-13
       3060.1384  8.34530e-13
       3067.3921  9.17980e-13
       3070.1382  1.01560e-12
       3072.8843  1.00950e-12
       3075.6304  1.00690e-12
       3078.3765  1.02290e-12
       3081.1226  9.84800e-13
       3083.8689  1.02340e-12
       3086.6150  9.82830e-13
       3089.3613  8.54560e-13
       3092.1074  8.00630e-13
       3094.8538  8.03330e-13
       3097.6001  7.74040e-13
       3100.3462  7.70350e-13
       3103.0925  9.89530e-13
       3105.8389  1.17320e-12
       3108.5852  1.23830e-12
       3111.3315  1.23040e-12
       3114.0779  1.18450e-12
       3116.8245  1.06890e-12
       3119.5708  1.00490e-12
       3122.3171  1.02880e-12
       3125.0637  1.05200e-12
       3127.8101  1.08290e-12
       3130.5566  1.09000e-12
       3133.3030  1.09450e-12
       3136.0496  1.13570e-12
       3138.7961  1.10600e-12
       3141.5427  1.05730e-12
       3144.2893  9.19160e-13
       3147.0359  1.03450e-12
       3149.7825  1.13120e-12
       3152.5291  1.08170e-12
       3155.2756  9.91350e-13
       3158.0222  9.12570e-13
       3160.7688  8.65510e-13
       3163.5156  1.00160e-12
       3166.2622  1.08270e-12
       3169.0090  1.18410e-12
       3171.7556  1.26390e-12
       3174.5024  1.25990e-12
       3177.2493  1.12940e-12
       3179.9961  9.46060e-13
       3182.7427  9.66260e-13
       3185.4895  1.07060e-12
       3188.2363  1.15170e-12
       3190.9832  1.06660e-12
       3193.7300  1.02010e-12
       3196.4771  1.12920e-12
       3199.2239  1.23610e-12
       3201.9707  1.28560e-12
       3204.7178  1.33760e-12
       3207.4646  1.22780e-12
       3210.2114  1.04810e-12
       3212.9585  9.88510e-13
       3215.7056  1.08640e-12
       3218.4524  1.19850e-12
       3221.1995  1.16900e-12
       3223.9465  1.08870e-12
       3226.6936  9.93370e-13
       3229.4407  9.77040e-13
       3232.1877  1.04670e-12
       3234.9348  1.03980e-12
       3237.6819  1.10860e-12
       3240.4290  1.19320e-12
       3243.1760  1.22990e-12
       3245.9231  1.25880e-12
       3248.6704  1.20250e-12
       3251.4175  1.25950e-12
       3254.1646  1.38840e-12
       3256.9119  1.51160e-12
       3259.6592  1.57000e-12
       3262.4062  1.52140e-12
       3265.1536  1.48880e-12
       3267.9009  1.55400e-12
       3270.6479  1.50160e-12
       3273.3953  1.50590e-12
       3276.1426  1.48930e-12
       3278.8899  1.45450e-12
       3281.6372  1.44760e-12
       3284.3845  1.41890e-12
       3287.1318  1.38550e-12
       3289.8794  1.54770e-12
       3292.6267  1.66880e-12
       3295.3740  1.71080e-12
       3298.1213  1.70670e-12
       3300.8689  1.68970e-12
       3303.6162  1.54450e-12
       3306.3638  1.43740e-12
       3309.1111  1.52730e-12
       3311.8586  1.54080e-12
       3314.6062  1.49830e-12
       3317.3535  1.54870e-12
       3320.1011  1.51070e-12
       3322.8486  1.43340e-12
       3325.5962  1.49130e-12
       3328.3438  1.47920e-12
       3331.0913  1.46560e-12
       3333.8389  1.44140e-12
       3336.5864  1.35100e-12
       3339.3340  1.43040e-12
       3342.0815  1.47770e-12
       3344.8291  1.52850e-12
       3347.5769  1.49480e-12
       3350.3245  1.44250e-12
       3353.0720  1.56590e-12
       3355.8198  1.55890e-12
       3358.5674  1.30710e-12
       3361.3152  1.15450e-12
       3364.0627  1.38020e-12
       3366.8105  1.36650e-12
       3369.5583  1.21950e-12
       3372.3059  1.23350e-12
       3375.0537  1.43970e-12
       3377.8015  1.47640e-12
       3380.5493  1.33130e-12
       3383.2971  1.41560e-12
       3386.0449  1.45260e-12
       3388.7927  1.48270e-12
       3391.5405  1.43550e-12
       3394.2883  1.43150e-12
       3397.0361  1.60060e-12
       3399.7839  1.71240e-12
       3402.5317  1.64400e-12
       3405.2795  1.54730e-12
       3408.0276  1.48420e-12
       3410.7754  1.48820e-12
       3413.5232  1.39010e-12
       3416.2712  1.42960e-12
       3419.0190  1.57280e-12
       3421.7671  1.57900e-12
       3424.5149  1.52150e-12
       3427.2629  1.56200e-12
       3430.0110  1.66810e-12
       3432.7588  1.58900e-12
       3435.5068  1.55260e-12
       3438.2549  1.38120e-12
       3441.0029  1.12200e-12
       3443.7507  1.12500e-12
       3446.4988  1.29520e-12
       3449.2468  1.44910e-12
       3451.9949  1.49880e-12
       3454.7429  1.53090e-12
       3457.4910  1.47980e-12
       3460.2390  1.36830e-12
       3462.9871  1.42700e-12
       3465.7354  1.49410e-12
       3468.4834  1.55340e-12
       3471.2314  1.54400e-12
       3473.9795  1.37360e-12
       3476.7278  1.29820e-12
       3479.4758  1.46850e-12
       3482.2239  1.51660e-12
       3484.9722  1.48250e-12
       3487.7202  1.50710e-12
       3490.4685  1.40900e-12
       3493.2166  1.34580e-12
       3495.9648  1.39040e-12
       3498.7129  1.50140e-12
       3501.4612  1.67570e-12
       3504.2095  1.71030e-12
       3506.9575  1.66600e-12
       3509.7058  1.58290e-12
       3512.4541  1.48660e-12
       3515.2024  1.47260e-12
       3517.9504  1.63290e-12
       3520.6987  1.55260e-12
       3523.4470  1.36800e-12
       3526.1953  1.38690e-12
       3528.9436  1.50040e-12
       3531.6919  1.60550e-12
       3534.4402  1.66220e-12
       3537.1885  1.71580e-12
       3539.9368  1.74670e-12
       3542.6851  1.73620e-12
       3545.4336  1.79890e-12
       3548.1819  1.78430e-12
       3550.9302  1.78330e-12
       3553.6785  1.67840e-12
       3556.4268  1.62760e-12
       3559.1753  1.62220e-12
       3561.9236  1.67790e-12
       3564.6719  1.53010e-12
       3567.4204  1.30940e-12
       3570.1687  1.21550e-12
       3572.9172  1.31090e-12
       3575.6655  1.41870e-12
       3578.4141  1.36410e-12
       3581.1624  1.14030e-12
       3583.9109  1.10450e-12
       3586.6592  1.09970e-12
       3589.4077  1.30330e-12
       3592.1560  1.56510e-12
       3594.9045  1.64410e-12
       3597.6531  1.75940e-12
       3600.4014  1.76610e-12
       3603.1499  1.61880e-12
       3605.8984  1.46590e-12
       3608.6470  1.34420e-12
       3611.3953  1.37620e-12
       3614.1438  1.46560e-12
       3616.8923  1.48040e-12
       3619.6409  1.30040e-12
       3622.3894  1.48570e-12
       3625.1379  1.65960e-12
       3627.8865  1.79730e-12
       3630.6350  1.57080e-12
       3633.3835  1.39540e-12
       3636.1321  1.52170e-12
       3638.8806  1.68280e-12
       3641.6292  1.74490e-12
       3644.3777  1.60740e-12
       3647.1262  1.47440e-12
       3649.8748  1.49040e-12
       3652.6233  1.69190e-12
       3655.3718  1.86540e-12
       3658.1204  1.94300e-12
       3660.8691  1.98330e-12
       3663.6177  1.92640e-12
       3666.3662  1.87270e-12
       3669.1147  1.84260e-12
       3671.8635  1.85900e-12
       3674.6121  1.86980e-12
       3677.3606  1.82700e-12
       3680.1091  1.67290e-12
       3682.8579  1.70820e-12
       3685.6064  1.69720e-12
       3688.3550  1.64560e-12
       3691.1038  1.83570e-12
       3693.8523  1.93470e-12
       3696.6011  1.93770e-12
       3699.3496  2.00530e-12
       3702.0984  1.97530e-12
       3704.8469  1.71730e-12
       3707.5955  1.55500e-12
       3710.3442  1.65930e-12
       3713.0928  1.92070e-12
       3715.8416  2.02330e-12
       3718.5901  1.75860e-12
       3721.3389  1.38450e-12
       3724.0876  1.51870e-12
       3726.8362  1.74970e-12
       3729.5850  1.71060e-12
       3732.3335  1.52960e-12
       3735.0823  1.19020e-12
       3737.8311  1.23900e-12
       3740.5796  1.55430e-12
       3743.3284  1.57460e-12
       3746.0769  1.29970e-12
       3748.8257  1.18910e-12
       3751.5745  1.43090e-12
       3754.3232  1.73920e-12
       3757.0718  1.83680e-12
       3759.8206  1.55710e-12
       3762.5693  1.65830e-12
       3765.3179  1.64860e-12
       3768.0667  1.67460e-12
